voltage,wavelength
0,0
0.1,-0.000145333
0.2,-0.000295333
0.3,-0.000447333
0.4,-0.000608667
0.5,-0.000768667
0.6,-0.000923333
0.7,-0.001075333
0.8,-0.001230667
0.9,-0.001392667
1,-0.001555333
1.1,-0.001714667
1.2,-0.001877333
1.3,-0.002042
1.4,-0.002191333
1.5,-0.002340667
1.6,-0.002500667
1.7,-0.002660667
1.8,-0.002825333
1.9,-0.002989333
2,-0.003160667
2.1,-0.003336
2.2,-0.003505333
2.3,-0.003673333
2.4,-0.003845333
2.5,-0.004028667
2.6,-0.004212667
2.7,-0.004399333
2.8,-0.004586
2.9,-0.004766667
3,-0.004938667
3.1,-0.00512
3.2,-0.00531
3.3,-0.005488
3.4,-0.005676667
3.5,-0.005862
3.6,-0.006056667
3.7,-0.006234
3.8,-0.006410667
3.9,-0.006585333
4,-0.006766
4.1,-0.006964
4.2,-0.007157333
4.3,-0.007343333
4.4,-0.007534667
4.5,-0.00772
4.6,-0.007908
4.7,-0.008101333
4.8,-0.008298667
4.9,-0.008501333
5,-0.008713333
5.1,-0.008914
5.2,-0.009112
5.3,-0.00929
5.4,-0.009476667
5.5,-0.009684
5.6,-0.009896667
5.7,-0.010117333
5.8,-0.010332667
5.9,-0.010526667
6,-0.010719333
6.1,-0.010919333
6.2,-0.011128
6.3,-0.011338667
6.4,-0.011556
6.5,-0.011762667
6.6,-0.011955333
6.7,-0.012142
6.8,-0.012333333
6.9,-0.012533333
7,-0.012731333
7.1,-0.012938
7.2,-0.013136667
7.3,-0.013322
7.4,-0.013499333
7.5,-0.013689333
7.6,-0.013877333
7.7,-0.014060667
7.8,-0.014250667
7.9,-0.014442
8,-0.014628
8.1,-0.014813333
8.2,-0.015005333
8.3,-0.015196
8.4,-0.015384
8.5,-0.015576667
8.6,-0.015771333
8.7,-0.015961333
8.8,-0.016150667
8.9,-0.016342667
9,-0.016528
9.1,-0.016707333
9.2,-0.016891333
9.3,-0.017083333
9.4,-0.017273333
9.5,-0.017468
9.6,-0.017662667
9.7,-0.017848
9.8,-0.018032
9.9,-0.018215333
10,-0.018414667
10.1,-0.018606
10.2,-0.018798667
10.3,-0.018984
10.4,-0.019158
10.5,-0.019331333
10.6,-0.019509333
10.7,-0.019694
10.8,-0.019896
10.9,-0.020096667
11,-0.020280667
11.1,-0.020462
11.2,-0.020639333
11.3,-0.020818667
11.4,-0.021004667
11.5,-0.021209333
11.6,-0.021412667
11.7,-0.021583333
11.8,-0.021764
11.9,-0.021948
12,-0.022136667
12.1,-0.022346
12.2,-0.022553333
12.3,-0.022750667
12.4,-0.022925333
12.5,-0.023092
12.6,-0.023276
12.7,-0.023469333
12.8,-0.023660667
12.9,-0.023877333
13,-0.02407
13.1,-0.024259333
13.2,-0.024464667
13.3,-0.024678
13.4,-0.024901333
13.5,-0.025124667
13.6,-0.025337333
13.7,-0.025535333
13.8,-0.025744667
13.9,-0.025965333
14,-0.026197333
14.1,-0.026431333
14.2,-0.026670667
14.3,-0.026884667
14.4,-0.027105333
14.5,-0.027334
14.6,-0.027573333
14.7,-0.027808
14.8,-0.028027333
14.9,-0.028216
15,-0.028417333
15.1,-0.028628667
15.2,-0.028852
15.3,-0.029078667
15.4,-0.0293
15.5,-0.029502
15.6,-0.029703333
15.7,-0.029912
15.8,-0.030139333
15.9,-0.030364
16,-0.030135333
16.1,-0.030320667
16.2,-0.030512
16.3,-0.030742
16.4,-0.030982
16.5,-0.031219333
16.6,-0.031438
16.7,-0.031638
16.8,-0.031840667
16.9,-0.032064
17,-0.032298
17.1,-0.032534
17.2,-0.032754
17.3,-0.032951333
17.4,-0.033158
17.5,-0.03338
17.6,-0.033620667
17.7,-0.033855333
17.8,-0.03408
17.9,-0.034287333
18,-0.034498667
18.1,-0.034721333
18.2,-0.034956667
18.3,-0.035187333
18.4,-0.035408
18.5,-0.035613333
18.6,-0.035825333
18.7,-0.036042
18.8,-0.036277333
18.9,-0.036517333
19,-0.036744
19.1,-0.036972
19.2,-0.037191333
19.3,-0.037418667
19.4,-0.037662667
19.5,-0.037906
19.6,-0.038114
19.7,-0.038324
19.8,-0.038541333
19.9,-0.038759333
20,-0.038989333
20.1,-0.039212667
20.2,-0.039447333
20.3,-0.039666667
20.4,-0.039886667
20.5,-0.040092
20.6,-0.040324
20.7,-0.040544667
20.8,-0.040761333
20.9,-0.040982
21,-0.041202
21.1,-0.041419333
21.2,-0.041658
21.3,-0.041901333
21.4,-0.042140667
21.5,-0.042372667
21.6,-0.042604
21.7,-0.042833333
21.8,-0.043084667
21.9,-0.04333
22,-0.043574
22.1,-0.043803333
22.2,-0.044031333
22.3,-0.044263333
22.4,-0.044516667
22.5,-0.044764667
22.6,-0.045008
22.7,-0.045240667
22.8,-0.045465333
22.9,-0.045709333
23,-0.045955333
23.1,-0.046210667
23.2,-0.046452667
23.3,-0.046682
23.4,-0.046901333
23.5,-0.047148667
23.6,-0.047402667
23.7,-0.047658667
23.8,-0.047902
23.9,-0.048120667
24,-0.048349333
24.1,-0.048606667
24.2,-0.048860667
24.3,-0.04911
24.4,-0.049342667
24.5,-0.049554
24.6,-0.04978
24.7,-0.050029333
24.8,-0.050282667
24.9,-0.050525333
25,-0.050754
25.1,-0.050988667
25.2,-0.051230667
25.3,-0.051624667
25.4,-0.051854667
25.5,-0.051952667
25.6,-0.052158667
25.7,-0.052372667
25.8,-0.052604
25.9,-0.052848
26,-0.053092
26.1,-0.053318667
26.2,-0.053523333
26.3,-0.053736667
26.4,-0.053962667
26.5,-0.054194
26.6,-0.054426
26.7,-0.05463
26.8,-0.054822
26.9,-0.055028667
27,-0.055248667
27.1,-0.055488667
27.2,-0.055720667
27.3,-0.055944667
27.4,-0.056149333
27.5,-0.056360667
27.6,-0.056587333
27.7,-0.056843333
27.8,-0.057074667
27.9,-0.057288
28,-0.0575
28.1,-0.057714667
28.2,-0.057946
28.3,-0.058212667
28.4,-0.058465333
28.5,-0.058696667
28.6,-0.058924667
28.7,-0.059159333
28.8,-0.059432667
28.9,-0.059687333
29,-0.059920667
29.1,-0.060137333
29.2,-0.060348
29.3,-0.060578
29.4,-0.060840667
29.5,-0.061095333
29.6,-0.061336
29.7,-0.061566
29.8,-0.061802667
29.9,-0.06206
30,-0.06232
30.1,-0.062567333
30.2,-0.062799333
30.3,-0.06302
30.4,-0.063254667
30.5,-0.063517333
30.6,-0.063779333
30.7,-0.06404
30.8,-0.064286
30.9,-0.064532667
31,-0.064784667
31.1,-0.065050667
31.2,-0.065312
31.3,-0.065561333
31.4,-0.065796667
31.5,-0.066037333
31.6,-0.066298
31.7,-0.066564667
31.8,-0.066828667
31.9,-0.067083333
32,-0.067334
32.1,-0.067593333
32.2,-0.06786
32.3,-0.068124667
32.4,-0.068385333
32.5,-0.068621333
32.6,-0.068866667
32.7,-0.069128
32.8,-0.06939
32.9,-0.06965
33,-0.069897333
33.1,-0.070136667
33.2,-0.070381333
33.3,-0.070631333
33.4,-0.07088
33.5,-0.071117333
33.6,-0.071353333
33.7,-0.071582
33.8,-0.07182
33.9,-0.072055333
34,-0.072288667
34.1,-0.072526
34.2,-0.072755333
34.3,-0.072982667
34.4,-0.073205333
34.5,-0.073446667
34.6,-0.073649333
34.7,-0.073846667
34.8,-0.074036667
34.9,-0.074259333
35,-0.074486667
35.1,-0.074726667
35.2,-0.074974667
35.3,-0.075224667
35.4,-0.075464667
35.5,-0.075700667
35.6,-0.075958
35.7,-0.076216667
35.8,-0.076471333
35.9,-0.076718
36,-0.076948667
36.1,-0.077180667
36.2,-0.077431333
36.3,-0.077690667
36.4,-0.077946
36.5,-0.078193333
36.6,-0.078437333
36.7,-0.078703333
36.8,-0.078978667
36.9,-0.079257333
37,-0.079518667
37.1,-0.079766
37.2,-0.080021333
37.3,-0.080288667
37.4,-0.080561333
37.5,-0.080822667
37.6,-0.081075333
37.7,-0.081332
37.8,-0.081593333
37.9,-0.081866
38,-0.08213
38.1,-0.082382
38.2,-0.082622
38.3,-0.082866
38.4,-0.08311
38.5,-0.08336
38.6,-0.083597333
38.7,-0.083834667
38.8,-0.08407
38.9,-0.084324
39,-0.084586
39.1,-0.084845333
39.2,-0.085095333
39.3,-0.085340667
39.4,-0.085586
39.5,-0.085839333
39.6,-0.086086
39.7,-0.086334667
39.8,-0.086575333
39.9,-0.086819333
40,-0.087076
40.1,-0.087334667
40.2,-0.087597333
40.3,-0.087852667
40.4,-0.088102667
40.5,-0.088342
40.6,-0.088598667
40.7,-0.088845333
40.8,-0.089092667
40.9,-0.089336
41,-0.089582
41.1,-0.089846667
41.2,-0.090116
41.3,-0.090371333
41.4,-0.09063
41.5,-0.09088
41.6,-0.09115
41.7,-0.091409333
41.8,-0.091664667
41.9,-0.091920667
42,-0.092179333
42.1,-0.092436667
42.2,-0.092695333
42.3,-0.092944667
42.4,-0.093195333
42.5,-0.093438667
42.6,-0.093676
42.7,-0.09393
42.8,-0.094185333
42.9,-0.094442
43,-0.094690667
43.1,-0.094934667
43.2,-0.095196667
43.3,-0.095466
43.4,-0.095720667
43.5,-0.095962
43.6,-0.096203333
43.7,-0.096455333
43.8,-0.096720667
43.9,-0.096976667
44,-0.097229333
44.1,-0.097472
44.2,-0.097718667
44.3,-0.097984667
44.4,-0.098245333
44.5,-0.098502667
44.6,-0.098745333
44.7,-0.098982667
44.8,-0.099245333
44.9,-0.099501333
45,-0.099758
45.1,-0.100006667
45.2,-0.100244
45.3,-0.100504
45.4,-0.100782667
45.5,-0.101056
45.6,-0.101325333
45.7,-0.101576667
45.8,-0.101843333
45.9,-0.102132667
46,-0.102416667
46.1,-0.102689333
46.2,-0.102944667
46.3,-0.103206667
46.4,-0.103484667
46.5,-0.103762
46.6,-0.104032667
46.7,-0.104283333
46.8,-0.104539333
46.9,-0.104825333
47,-0.105120667
47.1,-0.10541
47.2,-0.105669333
47.3,-0.105933333
47.4,-0.106204667
47.5,-0.106470667
47.6,-0.106746667
47.7,-0.106998667
47.8,-0.107242667
47.9,-0.107519333
48,-0.10779
48.1,-0.108067333
48.2,-0.108311333
48.3,-0.108534
48.4,-0.108803333
48.5,-0.109067333
48.6,-0.109321333
48.7,-0.109553333
48.8,-0.109770667
48.9,-0.11
49,-0.110253333
49.1,-0.110517333
49.2,-0.110757333
49.3,-0.110975333
49.4,-0.111208
49.5,-0.111478
49.6,-0.111739333
49.7,-0.112000667
49.8,-0.11223
49.9,-0.112444
50,-0.112696
50.1,-0.112974667
50.2,-0.113242
50.3,-0.113488
50.4,-0.113724667
50.5,-0.113984
50.6,-0.114278667
50.7,-0.114560667
50.8,-0.114813333
50.9,-0.11505
51,-0.115297333
51.1,-0.115567333
51.2,-0.115844
51.3,-0.116098
51.4,-0.116342
51.5,-0.116602
51.6,-0.116888667
51.7,-0.117181333
51.8,-0.117451333
51.9,-0.117708
52,-0.117974
52.1,-0.118253333
52.2,-0.118536
52.3,-0.118798667
52.4,-0.119046
52.5,-0.119303333
52.6,-0.119575333
52.7,-0.119853333
52.8,-0.120117333
52.9,-0.120372
53,-0.120632667
53.1,-0.120895333
53.2,-0.121166667
53.3,-0.121423333
53.4,-0.121673333
53.5,-0.121932667
53.6,-0.1222
53.7,-0.122485333
53.8,-0.122757333
53.9,-0.123022667
54,-0.123292667
54.1,-0.123572
54.2,-0.123867333
54.3,-0.124152667
54.4,-0.124424667
54.5,-0.124709333
54.6,-0.124996667
54.7,-0.125305333
54.8,-0.125592667
54.9,-0.125863333
55,-0.126144
55.1,-0.126425333
55.2,-0.126721333
55.3,-0.127008667
55.4,-0.127291333
55.5,-0.127573333
55.6,-0.127866
55.7,-0.128162
55.8,-0.128446
55.9,-0.128731333
56,-0.128999333
56.1,-0.129292667
56.2,-0.129584
56.3,-0.129861333
56.4,-0.130134667
56.5,-0.130400667
56.6,-0.130665333
56.7,-0.130948667
56.8,-0.131222667
56.9,-0.131477333
57,-0.131740667
57.1,-0.131998667
57.2,-0.132246
57.3,-0.132499333
57.4,-0.132756
57.5,-0.132997333
57.6,-0.13323
57.7,-0.133482667
57.8,-0.133731333
57.9,-0.133986667
58,-0.134246667
58.1,-0.134486
58.2,-0.134734667
58.3,-0.134986667
58.4,-0.135252667
58.5,-0.135506667
58.6,-0.135746
58.7,-0.135983333
58.8,-0.136238667
58.9,-0.136506
59,-0.136765333
59.1,-0.13701
59.2,-0.137237333
59.3,-0.137487333
59.4,-0.137747333
59.5,-0.137995333
59.6,-0.138224667
59.7,-0.138448
59.8,-0.138688
59.9,-0.138964
60,-0.139227333
60.1,-0.13947
60.2,-0.139704667
60.3,-0.139946667
60.4,-0.140217333
60.5,-0.140481333
60.6,-0.140731333
60.7,-0.140971333
60.8,-0.141227333
60.9,-0.141492667
61,-0.141759333
61.1,-0.142008
61.2,-0.142251333
61.3,-0.142496
61.4,-0.142753333
61.5,-0.143033333
61.6,-0.1433
61.7,-0.143555333
61.8,-0.143824667
61.9,-0.144102667
62,-0.144394
62.1,-0.144684
62.2,-0.144955333
62.3,-0.145226
62.4,-0.145506
62.5,-0.145813333
62.6,-0.146112
62.7,-0.146393333
62.8,-0.14667
62.9,-0.146962
63,-0.147261333
63.1,-0.147545333
63.2,-0.147806
63.3,-0.148056667
63.4,-0.148326
63.5,-0.148612667
63.6,-0.148893333
63.7,-0.149144
63.8,-0.149396
63.9,-0.149158667
64,-0.149394
64.1,-0.149650667
64.2,-0.149904667
64.3,-0.150162667
64.4,-0.150434
64.5,-0.150717333
64.6,-0.150980667
64.7,-0.15124
64.8,-0.15148
64.9,-0.15174
65,-0.152008
65.1,-0.152278
65.2,-0.152536
65.3,-0.152792667
65.4,-0.153055333
65.5,-0.153338667
65.6,-0.153605333
65.7,-0.153876
65.8,-0.154122667
65.9,-0.154389333
66,-0.154668667
66.1,-0.154939333
66.2,-0.155202
66.3,-0.15547
66.4,-0.155744667
66.5,-0.156042
66.6,-0.156337333
66.7,-0.156627333
66.8,-0.156894667
66.9,-0.157170667
67,-0.157456
67.1,-0.157732667
67.2,-0.158007333
67.3,-0.158254
67.4,-0.158518
67.5,-0.158804667
67.6,-0.159091333
67.7,-0.159371333
67.8,-0.159629333
67.9,-0.159887333
68,-0.160166667
68.1,-0.160448
68.2,-0.160721333
68.3,-0.160972667
68.4,-0.161234
68.5,-0.161523333
68.6,-0.161821333
68.7,-0.162104
68.8,-0.162362667
68.9,-0.162624
69,-0.162908
69.1,-0.163198
69.2,-0.163479333
69.3,-0.163732667
69.4,-0.164009333
69.5,-0.164304
69.6,-0.164594
69.7,-0.164870667
69.8,-0.165122
69.9,-0.165389333
70,-0.165678667
70.1,-0.165966667
70.2,-0.166249333
70.3,-0.166508667
70.4,-0.166784
70.5,-0.167076
70.6,-0.167352667
70.7,-0.167616
70.8,-0.167865333
70.9,-0.168128667
71,-0.168418667
71.1,-0.168696667
71.2,-0.16896
71.3,-0.169218
71.4,-0.169488
71.5,-0.169768
71.6,-0.170030667
71.7,-0.170282667
71.8,-0.170534
71.9,-0.170785333
72,-0.171068667
72.1,-0.17133
72.2,-0.171576
72.3,-0.171822
72.4,-0.172074
72.5,-0.172348667
72.6,-0.172612667
72.7,-0.172857333
72.8,-0.173116
72.9,-0.173458
73,-0.173594667
73.1,-0.173836
73.2,-0.174077333
73.3,-0.174307333
73.4,-0.174529333
73.5,-0.174797333
73.6,-0.175075333
73.7,-0.175336
73.8,-0.175584
73.9,-0.175836667
74,-0.176112
74.1,-0.176391333
74.2,-0.176648667
74.3,-0.176895333
74.4,-0.177144
74.5,-0.177431333
74.6,-0.177724
74.7,-0.178004667
74.8,-0.178273333
74.9,-0.178532
75,-0.178814
75.1,-0.179093333
75.2,-0.179354667
75.3,-0.179596
75.4,-0.179836
75.5,-0.180115333
75.6,-0.180397333
75.7,-0.180682
75.8,-0.180941333
75.9,-0.181194667
76,-0.181474
76.1,-0.181756667
76.2,-0.182028667
76.3,-0.18228
76.4,-0.182534667
76.5,-0.182834667
76.6,-0.183125333
76.7,-0.183418667
76.8,-0.183679333
76.9,-0.183935333
77,-0.184228667
77.1,-0.184512
77.2,-0.184794
77.3,-0.185050667
77.4,-0.185316
77.5,-0.185621333
77.6,-0.185914667
77.7,-0.186212667
77.8,-0.186478
77.9,-0.186754
78,-0.187048
78.1,-0.187334
78.2,-0.187617333
78.3,-0.187888
78.4,-0.188164667
78.5,-0.188452
78.6,-0.188733333
78.7,-0.189020667
78.8,-0.18929
78.9,-0.189561333
79,-0.189824667
79.1,-0.190088
79.2,-0.190346
79.3,-0.190590667
79.4,-0.190831333
79.5,-0.191084667
79.6,-0.191338
79.7,-0.191593333
79.8,-0.191836667
79.9,-0.192106667
80,-0.19236
80.1,-0.192732667
80.2,-0.192860667
80.3,-0.193108
80.4,-0.193340667
80.5,-0.1936
80.6,-0.193855333
80.7,-0.19411
80.8,-0.194352667
80.9,-0.194589333
81,-0.194857333
81.1,-0.195128667
81.2,-0.195406667
81.3,-0.195651333
81.4,-0.195895333
81.5,-0.196145333
81.6,-0.196433333
81.7,-0.1967
81.8,-0.196944667
81.9,-0.197198
82,-0.197470667
82.1,-0.197787333
82.2,-0.198077333
82.3,-0.198334667
82.4,-0.198595333
82.5,-0.198876667
82.6,-0.199186667
82.7,-0.199464667
82.8,-0.199712667
82.9,-0.199964667
83,-0.200257333
83.1,-0.200568
83.2,-0.200849333
83.3,-0.201095333
83.4,-0.201342
83.5,-0.201614
83.6,-0.201906
83.7,-0.202164
83.8,-0.202397333
83.9,-0.202634667
84,-0.20291
84.1,-0.203210667
84.2,-0.203479333
84.3,-0.203710667
84.4,-0.203954
84.5,-0.204222667
84.6,-0.204511333
84.7,-0.204776667
84.8,-0.205009333
84.9,-0.205248667
85,-0.20552
85.1,-0.205816
85.2,-0.206102
85.3,-0.206342667
85.4,-0.20658
85.5,-0.206847333
85.6,-0.207136
85.7,-0.20741
85.8,-0.207651333
85.9,-0.207895333
86,-0.208174667
86.1,-0.208470667
86.2,-0.208762667
86.3,-0.209016667
86.4,-0.209270667
86.5,-0.209556667
86.6,-0.209858667
86.7,-0.210144
86.8,-0.2104
86.9,-0.210656667
87,-0.210940667
87.1,-0.211225333
87.2,-0.211500667
87.3,-0.211746667
87.4,-0.211980667
87.5,-0.212255333
87.6,-0.212523333
87.7,-0.212782
87.8,-0.213014
87.9,-0.213244
88,-0.213521333
88.1,-0.213795333
88.2,-0.214047333
88.3,-0.214270667
88.4,-0.21452
88.5,-0.214782
88.6,-0.21505
88.7,-0.215306
88.8,-0.215551333
88.9,-0.215795333
89,-0.216054
89.1,-0.216334667
89.2,-0.216592
89.3,-0.216828667
89.4,-0.217069333
89.5,-0.217336
89.6,-0.217614667
89.7,-0.217873333
89.8,-0.218114
89.9,-0.218360667
90,-0.218637333
90.1,-0.218932
90.2,-0.219196667
90.3,-0.21943
90.4,-0.219676667
90.5,-0.219958
90.6,-0.220252667
90.7,-0.220530667
90.8,-0.220786
90.9,-0.221062667
91,-0.221364
91.1,-0.221678667
91.2,-0.221966667
91.3,-0.222230667
91.4,-0.222488667
91.5,-0.222778667
91.6,-0.223076667
91.7,-0.223354667
91.8,-0.223612667
91.9,-0.223872
92,-0.224158667
92.1,-0.22447
92.2,-0.224762
92.3,-0.225030667
92.4,-0.225282667
92.5,-0.225564
92.6,-0.225852667
92.7,-0.22612
92.8,-0.226365333
92.9,-0.226607333
93,-0.226878667
93.1,-0.227166
93.2,-0.22744
93.3,-0.227692667
93.4,-0.227929333
93.5,-0.228188
93.6,-0.228452667
93.7,-0.2287
93.8,-0.228917333
93.9,-0.229136
94,-0.229387333
94.1,-0.229654667
94.2,-0.229914667
94.3,-0.230150667
94.4,-0.230372667
94.5,-0.230637333
94.6,-0.230914667
94.7,-0.231172
94.8,-0.23141
94.9,-0.231628667
95,-0.231878
95.1,-0.232162
95.2,-0.232438667
95.3,-0.232694667
95.4,-0.232936
95.5,-0.233193333
95.6,-0.233486
95.7,-0.233775333
95.8,-0.234034
95.9,-0.234265333
96,-0.234504667
96.1,-0.234785333
96.2,-0.235083333
96.3,-0.235360667
96.4,-0.235615333
96.5,-0.235876
96.6,-0.236164667
96.7,-0.236454
96.8,-0.236734
96.9,-0.236974667
97,-0.237224
97.1,-0.237507333
97.2,-0.237798
97.3,-0.238074667
97.4,-0.238325333
97.5,-0.238565333
97.6,-0.238826667
97.7,-0.239083333
97.8,-0.239335333
97.9,-0.239566667
98,-0.239792
98.1,-0.240039333
98.2,-0.240298667
98.3,-0.240552667
98.4,-0.240786667
98.5,-0.241014667
98.6,-0.241257333
98.7,-0.241514667
98.8,-0.241775333
98.9,-0.242017333
99,-0.242256667
99.1,-0.242507333
99.2,-0.242792667
99.3,-0.243082667
99.4,-0.24336
99.5,-0.243633333
99.6,-0.243914667
99.7,-0.244218
99.8,-0.244521333
99.9,-0.244797333
100,-0.245060667
100.1,-0.245334667
100.2,-0.245655333
100.3,-0.245978
100.4,-0.246278
100.5,-0.24657
100.6,-0.246884667
100.7,-0.247232667
100.8,-0.247557333
100.9,-0.247861333
101,-0.248152667
101.1,-0.248473333
101.2,-0.248802
101.3,-0.24912
101.4,-0.249407333
101.5,-0.24969
101.6,-0.249986
101.7,-0.250280667
101.8,-0.250558
101.9,-0.250812
102,-0.251060667
102.1,-0.251315333
102.2,-0.251570667
102.3,-0.251808
102.4,-0.252028667
102.5,-0.252247333
102.6,-0.25249
102.7,-0.252738667
102.8,-0.252968
102.9,-0.25318
103,-0.253396667
103.1,-0.25362
103.2,-0.253856667
103.3,-0.254086
103.4,-0.254289333
103.5,-0.254495333
103.6,-0.254718
103.7,-0.254961333
103.8,-0.255198
103.9,-0.255418
104,-0.255638667
104.1,-0.255856667
104.2,-0.256084
104.3,-0.256318
104.4,-0.256532
104.5,-0.256743333
104.6,-0.256964
104.7,-0.257206667
104.8,-0.257449333
104.9,-0.257681333
105,-0.257910667
105.1,-0.258146
105.2,-0.258392667
105.3,-0.258656667
105.4,-0.258908
105.5,-0.259148
105.6,-0.259410667
105.7,-0.259691333
105.8,-0.259982667
105.9,-0.260252
106,-0.260506667
106.1,-0.260767333
106.2,-0.261042
106.3,-0.261337333
106.4,-0.261631333
106.5,-0.261915333
106.6,-0.262216
106.7,-0.262529333
106.8,-0.262859333
106.9,-0.26319
107,-0.263544667
107.1,-0.263876
107.2,-0.264195333
107.3,-0.264534
107.4,-0.264899333
107.5,-0.265231333
107.6,-0.265542667
107.7,-0.265836
107.8,-0.266138667
107.9,-0.266438667
108,-0.266736
108.1,-0.267018667
108.2,-0.267274667
108.3,-0.267529333
108.4,-0.267783333
108.5,-0.268036
108.6,-0.268270667
108.7,-0.268494667
108.8,-0.267556667
108.9,-0.267835333
109,-0.268110667
109.1,-0.268366667
109.2,-0.268594667
109.3,-0.268852
109.4,-0.269147333
109.5,-0.269434667
109.6,-0.269685333
109.7,-0.269914667
109.8,-0.270159333
109.9,-0.270448667
110,-0.270738667
110.1,-0.271002
110.2,-0.271244
110.3,-0.271492
110.4,-0.271784667
110.5,-0.272074667
110.6,-0.272335333
110.7,-0.272566
110.8,-0.272791333
110.9,-0.273071333
111,-0.273354667
111.1,-0.273614
111.2,-0.273860667
111.3,-0.274094667
111.4,-0.274379333
111.5,-0.274689333
111.6,-0.274975333
111.7,-0.275228
111.8,-0.275462667
111.9,-0.275734667
112,-0.27602
112.1,-0.276304
112.2,-0.276558
112.3,-0.276797333
112.4,-0.277061333
112.5,-0.277343333
112.6,-0.277624
112.7,-0.277878
112.8,-0.278120667
112.9,-0.278355333
113,-0.278618
113.1,-0.278892667
113.2,-0.279156667
113.3,-0.279404
113.4,-0.279650667
113.5,-0.279930667
113.6,-0.280218
113.7,-0.280496
113.8,-0.280753333
113.9,-0.280995333
114,-0.281269333
114.1,-0.281548
114.2,-0.281828667
114.3,-0.282086
114.4,-0.282328
114.5,-0.282596667
114.6,-0.282880667
114.7,-0.283161333
114.8,-0.283424
114.9,-0.283674
115,-0.283941333
115.1,-0.284224667
115.2,-0.284503333
115.3,-0.284762667
115.4,-0.285008667
115.5,-0.285274667
115.6,-0.285552
115.7,-0.285819333
115.8,-0.286072667
115.9,-0.286319333
116,-0.286576
116.1,-0.286848
116.2,-0.287123333
116.3,-0.287382
116.4,-0.287631333
116.5,-0.287885333
116.6,-0.288158
116.7,-0.288410667
116.8,-0.288649333
116.9,-0.288890667
117,-0.289132667
117.1,-0.289396
117.2,-0.289670667
117.3,-0.289931333
117.4,-0.290189333
117.5,-0.290437333
117.6,-0.290693333
117.7,-0.290948667
117.8,-0.291198
117.9,-0.291442
118,-0.291682667
118.1,-0.291911333
118.2,-0.292167333
118.3,-0.292422
118.4,-0.292669333
118.5,-0.292912
118.6,-0.293148
118.7,-0.293394667
118.8,-0.293644
118.9,-0.293894
119,-0.294144667
119.1,-0.29437
119.2,-0.294605333
119.3,-0.294856
119.4,-0.295104667
119.5,-0.295358667
119.6,-0.295605333
119.7,-0.295852
119.8,-0.296103333
119.9,-0.296377333
120,-0.296664667
120.1,-0.29693
120.2,-0.297173333
120.3,-0.29741
120.4,-0.29767
120.5,-0.297922667
120.6,-0.298170667
120.7,-0.298408
120.8,-0.298650667
120.9,-0.298902
121,-0.29926
121.1,-0.299518
121.2,-0.299766667
121.3,-0.299955333
121.4,-0.300193333
121.5,-0.300455333
121.6,-0.300715333
121.7,-0.30097
121.8,-0.301217333
121.9,-0.301468
122,-0.301754667
122.1,-0.302046
122.2,-0.302308667
122.3,-0.302559333
122.4,-0.302807333
122.5,-0.303078667
122.6,-0.303354667
122.7,-0.303618
122.8,-0.303874
122.9,-0.304130667
123,-0.304408
123.1,-0.304692
123.2,-0.304967333
123.3,-0.30523
123.4,-0.305493333
123.5,-0.305762667
123.6,-0.306038667
123.7,-0.306309333
123.8,-0.306574
123.9,-0.306836
124,-0.307092667
124.1,-0.307364667
124.2,-0.307637333
124.3,-0.307905333
124.4,-0.308172
124.5,-0.308427333
124.6,-0.308697333
124.7,-0.308962667
124.8,-0.309212667
124.9,-0.309455333
125,-0.309688
125.1,-0.309934667
125.2,-0.310194667
125.3,-0.310444667
125.4,-0.310694
125.5,-0.31093
125.6,-0.311187333
125.7,-0.311458667
125.8,-0.311714667
125.9,-0.311955333
126,-0.31219
126.1,-0.312434
126.2,-0.312705333
126.3,-0.312967333
126.4,-0.313217333
126.5,-0.313467333
126.6,-0.313703333
126.7,-0.31398
126.8,-0.314238
126.9,-0.314482
127,-0.314709333
127.1,-0.314941333
127.2,-0.315195333
127.3,-0.315456667
127.4,-0.315700667
127.5,-0.315939333
127.6,-0.316176667
127.7,-0.316427333
127.8,-0.316701333
127.9,-0.316962667
128,-0.317204667
128.1,-0.317436667
128.2,-0.317693333
128.3,-0.317959333
128.4,-0.318244667
128.5,-0.318496667
128.6,-0.318730667
128.7,-0.318971333
128.8,-0.319231333
128.9,-0.319516667
129,-0.319780667
129.1,-0.320024
129.2,-0.320264
129.3,-0.320513333
129.4,-0.320788
129.5,-0.321056667
129.6,-0.321304667
129.7,-0.321529333
129.8,-0.321762
129.9,-0.322014667
130,-0.322288667
130.1,-0.322544667
130.2,-0.322779333
130.3,-0.323005333
130.4,-0.323248
130.5,-0.323510667
130.6,-0.323780667
130.7,-0.324028667
130.8,-0.324264667
130.9,-0.324504667
131,-0.324765333
131.1,-0.32505
131.2,-0.325311333
131.3,-0.325548
131.4,-0.325776667
131.5,-0.326024667
131.6,-0.326289333
131.7,-0.326553333
131.8,-0.326805333
131.9,-0.327044
132,-0.327293333
132.1,-0.327556
132.2,-0.327842
132.3,-0.32811
132.4,-0.328362
132.5,-0.328606667
132.6,-0.328862
132.7,-0.329148
132.8,-0.329424
132.9,-0.329685333
133,-0.329929333
133.1,-0.330171333
133.2,-0.330436667
133.3,-0.330706
133.4,-0.330966
133.5,-0.331201333
133.6,-0.331432667
133.7,-0.331669333
133.8,-0.331921333
133.9,-0.332168
134,-0.332405333
134.1,-0.332627333
134.2,-0.332851333
134.3,-0.333086667
134.4,-0.333336667
134.5,-0.333572
134.6,-0.333801333
134.7,-0.33402
134.8,-0.334248
134.9,-0.334493333
135,-0.334744
135.1,-0.334987333
135.2,-0.335212667
135.3,-0.335449333
135.4,-0.33569
135.5,-0.335940667
135.6,-0.336185333
135.7,-0.336426
135.8,-0.336653333
135.9,-0.336884667
136,-0.33712
136.1,-0.337383333
136.2,-0.337635333
136.3,-0.337886
136.4,-0.338125333
136.5,-0.338375333
136.6,-0.33864
136.7,-0.338906
136.8,-0.339163333
136.9,-0.339422
137,-0.339682
137.1,-0.339953333
137.2,-0.340242
137.3,-0.340524
137.4,-0.340792
137.5,-0.341059333
137.6,-0.34133
137.7,-0.341599333
137.8,-0.341854
137.9,-0.342104667
138,-0.342356667
138.1,-0.342608667
138.2,-0.342864
138.3,-0.343112
138.4,-0.343362667
138.5,-0.343608667
138.6,-0.343854
138.7,-0.344111333
138.8,-0.344358
138.9,-0.344594667
139,-0.344832667
139.1,-0.345076667
139.2,-0.345323333
139.3,-0.345572
139.4,-0.345814
139.5,-0.346056
139.6,-0.346306667
139.7,-0.346559333
139.8,-0.346810667
139.9,-0.347050667
